1: water: V/L sat. T=5, to 370, C

                          Liquid       Vapor        Liquid       Vapor        Liquid       Vapor        Liquid       Vapor        Liquid       Vapor        
Temperature  Pressure     Density      Density      Enthalpy     Enthalpy     Entropy      Entropy      Therm. Cond. Therm. Cond. Viscosity    Viscosity    Surf. Tension
(C)          (kPa)        (kg/m^3)     (kg/m^3)     (kJ/kg)      (kJ/kg)      (kJ/kg-K)    (kJ/kg-K)    (W/m-K)      (W/m-K)      (uPa-s)      (uPa-s)      (N/m)
5,0000       0,87258      999,92       0,0068022    21,020       2510,1       0,076254     9,0248       0,57052      0,017339     1518,3       9,3357       0,074942
5,5000       0,90348      999,91       0,0070306    23,122       2511,0       0,083806     9,0120       0,57147      0,017366     1494,7       9,3480       0,074870
6,0000       0,93536      999,89       0,0072657    25,224       2511,9       0,091342     8,9993       0,57242      0,017394     1471,6       9,3604       0,074799
6,5000       0,96822      999,88       0,0075077    27,326       2512,8       0,098863     8,9867       0,57337      0,017422     1449,1       9,3728       0,074727
7,0000       1,0021       999,86       0,0077566    29,426       2513,7       0,10637      8,9741       0,57432      0,017450     1427,2       9,3853       0,074655
7,5000       1,0370       999,83       0,0080127    31,527       2514,6       0,11386      8,9616       0,57527      0,017478     1405,7       9,3978       0,074583
8,0000       1,0730       999,80       0,0082762    33,627       2515,6       0,12133      8,9491       0,57622      0,017507     1384,8       9,4103       0,074511
8,5000       1,1101       999,77       0,0085471    35,726       2516,5       0,12879      8,9367       0,57717      0,017535     1364,4       9,4230       0,074439
9,0000       1,1483       999,74       0,0088258    37,825       2517,4       0,13624      8,9243       0,57811      0,017564     1344,5       9,4357       0,074366
9,5000       1,1877       999,70       0,0091124    39,923       2518,3       0,14367      8,9120       0,57906      0,017592     1325,0       9,4484       0,074294
10,000       1,2282       999,65       0,0094071    42,021       2519,2       0,15109      8,8998       0,58000      0,017621     1306,0       9,4612       0,074221
10,500       1,2700       999,61       0,0097100    44,119       2520,1       0,15849      8,8876       0,58094      0,017650     1287,4       9,4740       0,074148
11,000       1,3130       999,56       0,010021     46,216       2521,0       0,16587      8,8754       0,58188      0,017679     1269,2       9,4869       0,074075
11,500       1,3573       999,51       0,010341     48,313       2521,9       0,17325      8,8633       0,58282      0,017709     1251,5       9,4999       0,074002
12,000       1,4028       999,45       0,010670     50,409       2522,9       0,18061      8,8513       0,58376      0,017738     1234,1       9,5129       0,073929
12,500       1,4498       999,39       0,011008     52,506       2523,8       0,18795      8,8393       0,58469      0,017768     1217,1       9,5259       0,073855
13,000       1,4981       999,33       0,011355     54,601       2524,7       0,19528      8,8274       0,58562      0,017797     1200,5       9,5390       0,073782
13,500       1,5478       999,27       0,011712     56,697       2525,6       0,20260      8,8155       0,58655      0,017827     1184,3       9,5521       0,073708
14,000       1,5990       999,20       0,012078     58,792       2526,5       0,20990      8,8037       0,58748      0,017857     1168,4       9,5653       0,073634
14,500       1,6516       999,13       0,012455     60,887       2527,4       0,21719      8,7920       0,58841      0,017887     1152,8       9,5786       0,073560
15,000       1,7058       999,06       0,012841     62,981       2528,3       0,22446      8,7803       0,58933      0,017918     1137,6       9,5919       0,073486
15,500       1,7615       998,98       0,013238     65,076       2529,2       0,23173      8,7686       0,59026      0,017948     1122,7       9,6052       0,073411
16,000       1,8188       998,90       0,013645     67,170       2530,2       0,23897      8,7570       0,59117      0,017978     1108,1       9,6186       0,073337
16,500       1,8778       998,82       0,014063     69,264       2531,1       0,24621      8,7454       0,59209      0,018009     1093,8       9,6320       0,073262
17,000       1,9384       998,73       0,014493     71,357       2532,0       0,25343      8,7339       0,59300      0,018040     1079,9       9,6455       0,073188
17,500       2,0007       998,64       0,014933     73,451       2532,9       0,26064      8,7225       0,59391      0,018071     1066,1       9,6590       0,073113
18,000       2,0647       998,55       0,015385     75,544       2533,8       0,26783      8,7111       0,59482      0,018102     1052,7       9,6725       0,073038
18,500       2,1306       998,46       0,015849     77,637       2534,7       0,27501      8,6997       0,59572      0,018133     1039,6       9,6862       0,072963
19,000       2,1983       998,36       0,016325     79,729       2535,6       0,28218      8,6884       0,59663      0,018164     1026,7       9,6998       0,072887
19,500       2,2678       998,26       0,016813     81,822       2536,5       0,28934      8,6772       0,59752      0,018196     1014,0       9,7135       0,072812
20,000       2,3393       998,16       0,017314     83,914       2537,4       0,29648      8,6660       0,59842      0,018227     1001,6       9,7272       0,072736
20,500       2,4128       998,06       0,017828     86,006       2538,3       0,30361      8,6548       0,59931      0,018259     989,50       9,7410       0,072660
21,000       2,4882       997,95       0,018354     88,098       2539,3       0,31073      8,6437       0,60019      0,018291     977,59       9,7548       0,072584
21,500       2,5657       997,84       0,018895     90,190       2540,2       0,31784      8,6327       0,60108      0,018323     965,91       9,7687       0,072508
22,000       2,6453       997,73       0,019448     92,282       2541,1       0,32493      8,6217       0,60196      0,018355     954,46       9,7826       0,072432
22,500       2,7271       997,61       0,020016     94,373       2542,0       0,33201      8,6107       0,60283      0,018387     943,22       9,7965       0,072356
23,000       2,8111       997,50       0,020598     96,465       2542,9       0,33908      8,5998       0,60370      0,018420     932,19       9,8105       0,072279
23,500       2,8973       997,38       0,021195     98,556       2543,8       0,34613      8,5889       0,60457      0,018452     921,37       9,8246       0,072203
24,000       2,9858       997,25       0,021806     100,65       2544,7       0,35318      8,5781       0,60544      0,018485     910,76       9,8386       0,072126
24,500       3,0767       997,13       0,022433     102,74       2545,6       0,36021      8,5674       0,60630      0,018517     900,34       9,8527       0,072049
25,000       3,1699       997,00       0,023075     104,83       2546,5       0,36722      8,5566       0,60715      0,018550     890,11       9,8669       0,071972
25,500       3,2657       996,87       0,023733     106,92       2547,4       0,37423      8,5460       0,60800      0,018583     880,06       9,8810       0,071895
26,000       3,3639       996,74       0,024406     109,01       2548,3       0,38123      8,5353       0,60885      0,018617     870,20       9,8953       0,071818
26,500       3,4647       996,61       0,025097     111,10       2549,2       0,38821      8,5248       0,60969      0,018650     860,52       9,9095       0,071740
27,000       3,5681       996,47       0,025804     113,19       2550,1       0,39518      8,5142       0,61053      0,018683     851,01       9,9238       0,071663
27,500       3,6742       996,33       0,026528     115,28       2551,0       0,40214      8,5037       0,61136      0,018717     841,67       9,9382       0,071585
28,000       3,7831       996,19       0,027269     117,37       2551,9       0,40908      8,4933       0,61219      0,018750     832,49       9,9525       0,071507
28,500       3,8947       996,05       0,028028     119,46       2552,8       0,41602      8,4829       0,61301      0,018784     823,47       9,9669       0,071429
29,000       4,0092       995,90       0,028805     121,55       2553,7       0,42294      8,4725       0,61383      0,018818     814,62       9,9814       0,071351
29,500       4,1266       995,76       0,029601     123,64       2554,6       0,42985      8,4622       0,61465      0,018852     805,91       9,9959       0,071273
30,000       4,2470       995,61       0,030415     125,73       2555,5       0,43675      8,4520       0,61546      0,018887     797,36       10,010       0,071194
30,500       4,3704       995,45       0,031249     127,82       2556,4       0,44364      8,4417       0,61626      0,018921     788,95       10,025       0,071116
31,000       4,4969       995,30       0,032102     129,91       2557,3       0,45052      8,4316       0,61706      0,018955     780,68       10,039       0,071037
31,500       4,6266       995,14       0,032975     132,00       2558,3       0,45739      8,4214       0,61786      0,018990     772,55       10,054       0,070958
32,000       4,7596       994,99       0,033868     134,09       2559,2       0,46424      8,4113       0,61865      0,019025     764,56       10,069       0,070879
32,500       4,8958       994,82       0,034782     136,18       2560,1       0,47108      8,4013       0,61943      0,019060     756,71       10,083       0,070800
33,000       5,0354       994,66       0,035717     138,27       2561,0       0,47792      8,3913       0,62021      0,019095     748,98       10,098       0,070721
33,500       5,1785       994,50       0,036673     140,36       2561,9       0,48474      8,3813       0,62099      0,019130     741,38       10,113       0,070641
34,000       5,3251       994,33       0,037651     142,45       2562,8       0,49155      8,3714       0,62176      0,019165     733,90       10,128       0,070562
34,500       5,4752       994,16       0,038651     144,54       2563,6       0,49834      8,3615       0,62252      0,019200     726,55       10,143       0,070482
35,000       5,6290       993,99       0,039674     146,63       2564,5       0,50513      8,3517       0,62328      0,019236     719,31       10,157       0,070402
35,500       5,7866       993,82       0,040720     148,72       2565,4       0,51191      8,3419       0,62404      0,019272     712,20       10,172       0,070322
36,000       5,9479       993,64       0,041790     150,81       2566,3       0,51867      8,3321       0,62479      0,019307     705,19       10,187       0,070242
36,500       6,1131       993,47       0,042883     152,90       2567,2       0,52543      8,3224       0,62553      0,019343     698,30       10,202       0,070162
37,000       6,2823       993,29       0,044001     154,99       2568,1       0,53217      8,3127       0,62627      0,019379     691,51       10,217       0,070081
37,500       6,4555       993,11       0,045143     157,08       2569,0       0,53890      8,3031       0,62700      0,019416     684,84       10,232       0,070001
38,000       6,6328       992,92       0,046311     159,17       2569,9       0,54562      8,2935       0,62773      0,019452     678,26       10,247       0,069920
38,500       6,8144       992,74       0,047504     161,26       2570,8       0,55233      8,2840       0,62845      0,019488     671,79       10,262       0,069839
39,000       7,0002       992,55       0,048723     163,35       2571,7       0,55903      8,2745       0,62917      0,019525     665,42       10,277       0,069759
39,500       7,1903       992,37       0,049969     165,44       2572,6       0,56572      8,2650       0,62988      0,019562     659,15       10,292       0,069678
40,000       7,3849       992,18       0,051242     167,53       2573,5       0,57240      8,2555       0,63058      0,019599     652,97       10,308       0,069596
40,500       7,5841       991,98       0,052543     169,62       2574,4       0,57907      8,2462       0,63129      0,019636     646,89       10,323       0,069515
41,000       7,7878       991,79       0,053871     171,71       2575,3       0,58573      8,2368       0,63198      0,019673     640,89       10,338       0,069434
41,500       7,9963       991,59       0,055228     173,80       2576,2       0,59237      8,2275       0,63267      0,019710     634,99       10,353       0,069352
42,000       8,2096       991,40       0,056614     175,89       2577,1       0,59901      8,2182       0,63335      0,019747     629,18       10,368       0,069270
42,500       8,4277       991,20       0,058029     177,98       2578,0       0,60564      8,2090       0,63403      0,019785     623,45       10,384       0,069188
43,000       8,6508       991,00       0,059474     180,07       2578,9       0,61225      8,1998       0,63471      0,019823     617,81       10,399       0,069106
43,500       8,8790       990,79       0,060950     182,16       2579,8       0,61886      8,1906       0,63537      0,019860     612,25       10,414       0,069024
44,000       9,1124       990,59       0,062457     184,25       2580,6       0,62545      8,1815       0,63604      0,019898     606,77       10,430       0,068942
44,500       9,3510       990,38       0,063995     186,34       2581,5       0,63204      8,1724       0,63669      0,019937     601,37       10,445       0,068859
45,000       9,5950       990,17       0,065565     188,43       2582,4       0,63861      8,1633       0,63734      0,019975     596,05       10,461       0,068777
45,500       9,8444       989,96       0,067168     190,53       2583,3       0,64518      8,1543       0,63799      0,020013     590,81       10,476       0,068694
46,000       10,099       989,75       0,068803     192,62       2584,2       0,65173      8,1453       0,63863      0,020052     585,64       10,492       0,068611
46,500       10,360       989,54       0,070473     194,71       2585,1       0,65828      8,1364       0,63926      0,020090     580,55       10,507       0,068528
47,000       10,627       989,32       0,072176     196,80       2586,0       0,66481      8,1275       0,63989      0,020129     575,52       10,523       0,068445
47,500       10,899       989,11       0,073914     198,89       2586,9       0,67134      8,1186       0,64052      0,020168     570,57       10,538       0,068362
48,000       11,177       988,89       0,075688     200,98       2587,8       0,67785      8,1098       0,64114      0,020207     565,69       10,554       0,068279
48,500       11,461       988,67       0,077497     203,07       2588,6       0,68435      8,1010       0,64175      0,020246     560,88       10,569       0,068195
49,000       11,752       988,44       0,079343     205,16       2589,5       0,69085      8,0922       0,64236      0,020286     556,13       10,585       0,068112
49,500       12,049       988,22       0,081226     207,25       2590,4       0,69733      8,0835       0,64296      0,020325     551,45       10,601       0,068028
50,000       12,352       988,00       0,083147     209,34       2591,3       0,70381      8,0748       0,64355      0,020365     546,83       10,616       0,067944
50,500       12,662       987,77       0,085106     211,43       2592,2       0,71027      8,0662       0,64414      0,020404     542,28       10,632       0,067860
51,000       12,978       987,54       0,087103     213,52       2593,1       0,71673      8,0576       0,64473      0,020444     537,79       10,648       0,067776
51,500       13,301       987,31       0,089140     215,62       2593,9       0,72317      8,0490       0,64531      0,020484     533,36       10,663       0,067691
52,000       13,631       987,08       0,091217     217,71       2594,8       0,72961      8,0404       0,64588      0,020525     528,99       10,679       0,067607
52,500       13,968       986,85       0,093335     219,80       2595,7       0,73604      8,0319       0,64645      0,020565     524,67       10,695       0,067522
53,000       14,312       986,61       0,095494     221,89       2596,6       0,74245      8,0234       0,64702      0,020605     520,42       10,711       0,067438
53,500       14,664       986,37       0,097695     223,98       2597,5       0,74886      8,0150       0,64757      0,020646     516,22       10,727       0,067353
54,000       15,022       986,14       0,099938     226,07       2598,3       0,75526      8,0066       0,64813      0,020687     512,08       10,743       0,067268
54,500       15,388       985,90       0,10223      228,16       2599,2       0,76164      7,9982       0,64867      0,020728     507,99       10,758       0,067183
55,000       15,762       985,66       0,10456      230,26       2600,1       0,76802      7,9898       0,64922      0,020769     503,96       10,774       0,067098
55,500       16,144       985,41       0,10693      232,35       2601,0       0,77439      7,9815       0,64975      0,020810     499,98       10,790       0,067012
56,000       16,533       985,17       0,10935      234,44       2601,8       0,78075      7,9732       0,65028      0,020851     496,05       10,806       0,066927
56,500       16,930       984,92       0,11182      236,53       2602,7       0,78710      7,9650       0,65081      0,020893     492,17       10,822       0,066841
57,000       17,336       984,68       0,11433      238,62       2603,6       0,79344      7,9568       0,65133      0,020934     488,34       10,838       0,066755
57,500       17,749       984,43       0,11689      240,72       2604,5       0,79977      7,9486       0,65185      0,020976     484,56       10,854       0,066670
58,000       18,171       984,18       0,11950      242,81       2605,3       0,80610      7,9404       0,65236      0,021018     480,83       10,870       0,066584
58,500       18,602       983,92       0,12216      244,90       2606,2       0,81241      7,9323       0,65286      0,021060     477,15       10,886       0,066497
59,000       19,041       983,67       0,12486      246,99       2607,1       0,81871      7,9242       0,65336      0,021102     473,51       10,902       0,066411
59,500       19,489       983,42       0,12762      249,09       2608,0       0,82501      7,9162       0,65386      0,021144     469,92       10,918       0,066325
60,000       19,946       983,16       0,13043      251,18       2608,8       0,83129      7,9081       0,65435      0,021187     466,38       10,935       0,066238
60,500       20,413       982,90       0,13328      253,27       2609,7       0,83757      7,9002       0,65483      0,021229     462,88       10,951       0,066152
61,000       20,888       982,64       0,13620      255,37       2610,6       0,84384      7,8922       0,65531      0,021272     459,42       10,967       0,066065
61,500       21,373       982,38       0,13916      257,46       2611,4       0,85009      7,8843       0,65578      0,021315     456,00       10,983       0,065978
62,000       21,867       982,12       0,14218      259,55       2612,3       0,85634      7,8764       0,65625      0,021358     452,63       10,999       0,065891
62,500       22,371       981,86       0,14525      261,65       2613,2       0,86258      7,8685       0,65672      0,021401     449,30       11,015       0,065804
63,000       22,885       981,59       0,14838      263,74       2614,0       0,86882      7,8607       0,65718      0,021445     446,01       11,032       0,065716
63,500       23,409       981,33       0,15156      265,83       2614,9       0,87504      7,8528       0,65763      0,021488     442,76       11,048       0,065629
